Platinum (JCPDS 4-0802, EOS from Holmes 1989)
1 3.9231 266 5.81 1.0
d (A)       I/I0    h   k   l
2.265       100     1   1   1
1.962        53     2   0   0
1.387        31     2   2   0
1.1826       33     3   1   1
1.1325       12     2   2   2
0.9808        6     4   0   0
0.9000       22     3   3   1
0.8773       20     4   2   0
0.8008       29     4   2   2
